#FORMAT	     : EMSA/MAS Spectral Data File
#VERSION     : 1.0
#TITLE       : LiF(0-0170eV)
#DATE        : 
#TIME        : 
#OWNER       : 
#NPOINTS     : 1000
#NCOLUMNS    : 1
#XUNITS      : eV
#YUNITS      : 
#DATATYPE    : XY
#XPERCHAN    : 2.000000e-001
#OFFSET      : -2.580000e+001
#SIGNALTYPE  : ELS
#SPECTRUM    : Spectral Data Starts Here
-2.580000e+001, -1.000000e+000
-2.560000e+001, -1.000000e+000
-2.540000e+001, -1.000000e+000
-2.520000e+001, -1.000000e+000
-2.500000e+001, -1.000000e+000
-2.480000e+001, 1.000000e-001
-2.460000e+001, 1.000000e-001
-2.440000e+001, 1.000000e-001
-2.420000e+001, 1.000000e-001
-2.400000e+001, 1.000000e-001
-2.380000e+001, 1.000000e-001
-2.360000e+001, 8.000000e+000
-2.340000e+001, 7.000000e+000
-2.320000e+001, 7.000000e+000
-2.300000e+001, 9.000000e+000
-2.280000e+001, 1.100000e+001
-2.260000e+001, 1.100000e+001
-2.240000e+001, 1.300000e+001
-2.220000e+001, 1.200000e+001
-2.200000e+001, 1.200000e+001
-2.180000e+001, 1.600000e+001
-2.160000e+001, 2.000000e+001
-2.140000e+001, 2.000000e+001
-2.120000e+001, 2.800000e+001
-2.100000e+001, 3.000000e+001
-2.080000e+001, 3.800000e+001
-2.060000e+001, 3.800000e+001
-2.040000e+001, 4.700000e+001
-2.020000e+001, 5.700000e+001
-2.000000e+001, 5.800000e+001
-1.980000e+001, 6.500000e+001
-1.960000e+001, 6.000000e+001
-1.940000e+001, 7.200000e+001
-1.920000e+001, 7.800000e+001
-1.900000e+001, 8.000000e+001
-1.880000e+001, 7.300000e+001
-1.860000e+001, 7.800000e+001
-1.840000e+001, 7.400000e+001
-1.820000e+001, 7.700000e+001
-1.800000e+001, 7.800000e+001
-1.780000e+001, 7.900000e+001
-1.760000e+001, 7.400000e+001
-1.740000e+001, 7.600000e+001
-1.720000e+001, 7.700000e+001
-1.700000e+001, 7.800000e+001
-1.680000e+001, 7.500000e+001
-1.660000e+001, 7.700000e+001
-1.640000e+001, 7.700000e+001
-1.620000e+001, 7.400000e+001
-1.600000e+001, 7.600000e+001
-1.580000e+001, 7.900000e+001
-1.560000e+001, 7.500000e+001
-1.540000e+001, 7.600000e+001
-1.520000e+001, 8.000000e+001
-1.500000e+001, 7.400000e+001
-1.480000e+001, 7.800000e+001
-1.460000e+001, 7.200000e+001
-1.440000e+001, 8.000000e+001
-1.420000e+001, 7.700000e+001
-1.400000e+001, 7.800000e+001
-1.380000e+001, 7.500000e+001
-1.360000e+001, 7.700000e+001
-1.340000e+001, 7.600000e+001
-1.320000e+001, 7.900000e+001
-1.300000e+001, 7.700000e+001
-1.280000e+001, 8.200000e+001
-1.260000e+001, 7.100000e+001
-1.240000e+001, 8.000000e+001
-1.220000e+001, 7.900000e+001
-1.200000e+001, 7.800000e+001
-1.180000e+001, 8.100000e+001
-1.160000e+001, 7.600000e+001
-1.140000e+001, 7.900000e+001
-1.120000e+001, 8.100000e+001
-1.100000e+001, 8.100000e+001
-1.080000e+001, 7.900000e+001
-1.060000e+001, 8.000000e+001
-1.040000e+001, 8.100000e+001
-1.020000e+001, 8.300000e+001
-1.000000e+001, 8.200000e+001
-9.800001e+000, 8.700000e+001
-9.600000e+000, 8.000000e+001
-9.400002e+000, 8.900000e+001
-9.200001e+000, 9.200000e+001
-9.000000e+000, 9.200000e+001
-8.800001e+000, 9.700000e+001
-8.600000e+000, 9.800000e+001
-8.400002e+000, 1.040000e+002
-8.200001e+000, 1.090000e+002
-8.000000e+000, 1.180000e+002
-7.800001e+000, 1.150000e+002
-7.600000e+000, 1.180000e+002
-7.400002e+000, 1.190000e+002
-7.200001e+000, 1.300000e+002
-7.000000e+000, 1.300000e+002
-6.800001e+000, 1.360000e+002
-6.600000e+000, 1.360000e+002
-6.400002e+000, 1.470000e+002
-6.200001e+000, 1.560000e+002
-6.000000e+000, 1.640000e+002
-5.800001e+000, 1.790000e+002
-5.600000e+000, 1.890000e+002
-5.400002e+000, 2.210000e+002
-5.200001e+000, 2.410000e+002
-5.000000e+000, 2.830000e+002
-4.800001e+000, 3.400000e+002
-4.600000e+000, 3.960000e+002
-4.400002e+000, 5.050000e+002
-4.200001e+000, 6.020000e+002
-4.000000e+000, 7.540000e+002
-3.800001e+000, 9.380000e+002
-3.600000e+000, 1.157000e+003
-3.400002e+000, 1.455000e+003
-3.200001e+000, 1.841000e+003
-3.000000e+000, 2.345000e+003
-2.800001e+000, 3.013000e+003
-2.600000e+000, 3.855000e+003
-2.400002e+000, 5.292000e+003
-2.200001e+000, 7.129000e+003
-2.000000e+000, 9.828000e+003
-1.800001e+000, 1.418300e+004
-1.600000e+000, 1.984100e+004
-1.400002e+000, 3.041300e+004
-1.200001e+000, 4.498700e+004
-1.000000e+000, 7.024700e+004
-8.000011e-001, 1.142760e+005
-6.000004e-001, 1.822190e+005
-4.000015e-001, 2.848600e+005
-2.000008e-001, 3.728220e+005
0.000000e+000, 4.098220e+005
1.999989e-001, 3.713900e+005
3.999996e-001, 2.807240e+005
5.999985e-001, 1.704610e+005
7.999992e-001, 9.561510e+004
1.000000e+000, 5.905500e+004
1.199999e+000, 3.614000e+004
1.400000e+000, 2.315900e+004
1.599998e+000, 1.612700e+004
1.799999e+000, 1.225500e+004
2.000000e+000, 9.997000e+003
2.199999e+000, 8.517000e+003
2.400000e+000, 7.584000e+003
2.599998e+000, 6.950000e+003
2.799999e+000, 6.563000e+003
3.000000e+000, 6.285000e+003
3.199999e+000, 6.037000e+003
3.400000e+000, 5.839000e+003
3.599998e+000, 5.632000e+003
3.799999e+000, 5.449000e+003
4.000000e+000, 5.278000e+003
4.199999e+000, 5.098000e+003
4.400000e+000, 4.934000e+003
4.599998e+000, 4.797000e+003
4.799999e+000, 4.675000e+003
5.000000e+000, 4.581000e+003
5.199999e+000, 4.495000e+003
5.400000e+000, 4.443000e+003
5.599998e+000, 4.426000e+003
5.799999e+000, 4.437000e+003
6.000000e+000, 4.475000e+003
6.199999e+000, 4.524000e+003
6.400000e+000, 4.601000e+003
6.600000e+000, 4.618000e+003
6.800001e+000, 4.739000e+003
6.999998e+000, 4.774000e+003
7.199999e+000, 4.803000e+003
7.400000e+000, 4.814000e+003
7.600000e+000, 4.796000e+003
7.800001e+000, 4.770000e+003
7.999998e+000, 4.736000e+003
8.199999e+000, 4.694000e+003
8.400000e+000, 4.673000e+003
8.600000e+000, 4.653000e+003
8.800001e+000, 4.678000e+003
8.999998e+000, 4.697000e+003
9.199999e+000, 4.733000e+003
9.400000e+000, 4.768000e+003
9.600000e+000, 4.795000e+003
9.800001e+000, 4.810000e+003
9.999998e+000, 4.836000e+003
1.020000e+001, 4.831000e+003
1.040000e+001, 4.830000e+003
1.060000e+001, 4.835000e+003
1.080000e+001, 4.845000e+003
1.100000e+001, 4.863000e+003
1.120000e+001, 4.892000e+003
1.140000e+001, 4.946000e+003
1.160000e+001, 5.048000e+003
1.180000e+001, 5.237000e+003
1.200000e+001, 5.499000e+003
1.220000e+001, 5.815000e+003
1.240000e+001, 6.299000e+003
1.260000e+001, 6.829000e+003
1.280000e+001, 7.377000e+003
1.300000e+001, 7.857000e+003
1.320000e+001, 8.166000e+003
1.340000e+001, 8.293000e+003
1.360000e+001, 8.271000e+003
1.380000e+001, 8.201000e+003
1.400000e+001, 8.173000e+003
1.420000e+001, 8.213000e+003
1.440000e+001, 8.336000e+003
1.460000e+001, 8.487000e+003
1.480000e+001, 8.668000e+003
1.500000e+001, 8.811000e+003
1.520000e+001, 8.898000e+003
1.540000e+001, 8.948000e+003
1.560000e+001, 8.936000e+003
1.580000e+001, 8.870010e+003
1.600000e+001, 8.775000e+003
1.620000e+001, 8.689000e+003
1.640000e+001, 8.639000e+003
1.660000e+001, 8.399000e+003
1.680000e+001, 8.686000e+003
1.700000e+001, 8.752000e+003
1.720000e+001, 8.825000e+003
1.740000e+001, 8.895000e+003
1.760000e+001, 8.951000e+003
1.780000e+001, 8.984000e+003
1.800000e+001, 8.957000e+003
1.820000e+001, 8.926000e+003
1.840000e+001, 8.861000e+003
1.860000e+001, 8.812010e+003
1.880000e+001, 8.755000e+003
1.900000e+001, 8.721000e+003
1.920000e+001, 8.712000e+003
1.940000e+001, 8.726000e+003
1.960000e+001, 8.759000e+003
1.980000e+001, 8.820000e+003
2.000000e+001, 8.876000e+003
2.020000e+001, 8.939000e+003
2.040000e+001, 9.027000e+003
2.060000e+001, 9.113000e+003
2.080000e+001, 9.183000e+003
2.100000e+001, 9.267010e+003
2.120000e+001, 9.371000e+003
2.140000e+001, 9.464000e+003
2.160000e+001, 9.617000e+003
2.180000e+001, 9.796010e+003
2.200000e+001, 1.001800e+004
2.220000e+001, 1.029400e+004
2.240000e+001, 1.062300e+004
2.260000e+001, 1.105300e+004
2.280000e+001, 1.150500e+004
2.300000e+001, 1.175500e+004
2.320000e+001, 1.246600e+004
2.340000e+001, 1.294800e+004
2.360000e+001, 1.342900e+004
2.380000e+001, 1.383600e+004
2.400000e+001, 1.418000e+004
2.420000e+001, 1.446900e+004
2.440000e+001, 1.468000e+004
2.460000e+001, 1.478700e+004
2.480000e+001, 1.483100e+004
2.500000e+001, 1.474200e+004
2.520000e+001, 1.456500e+004
2.540000e+001, 1.429600e+004
2.560000e+001, 1.391200e+004
2.580000e+001, 1.350700e+004
2.600000e+001, 1.299400e+004
2.620000e+001, 1.244200e+004
2.640000e+001, 1.183600e+004
2.660000e+001, 1.093700e+004
2.680000e+001, 1.059200e+004
2.700000e+001, 9.962010e+003
2.720000e+001, 9.376000e+003
2.740000e+001, 8.912000e+003
2.760000e+001, 8.442000e+003
2.780000e+001, 8.091000e+003
2.800000e+001, 7.823000e+003
2.820000e+001, 7.591010e+003
2.840000e+001, 7.432000e+003
2.860000e+001, 7.280000e+003
2.880000e+001, 7.166000e+003
2.900000e+001, 7.044000e+003
2.920000e+001, 6.925000e+003
2.940000e+001, 6.821000e+003
2.960000e+001, 6.702000e+003
2.980000e+001, 6.604000e+003
3.000000e+001, 6.495000e+003
3.020000e+001, 6.388000e+003
3.040000e+001, 6.276000e+003
3.060000e+001, 6.196000e+003
3.080000e+001, 6.095000e+003
3.100000e+001, 6.000000e+003
3.120000e+001, 5.915000e+003
3.140000e+001, 5.834000e+003
3.160000e+001, 5.745000e+003
3.180000e+001, 5.677000e+003
3.200000e+001, 5.599000e+003
3.220000e+001, 5.541000e+003
3.240000e+001, 5.468000e+003
3.260000e+001, 5.404000e+003
3.280000e+001, 5.346000e+003
3.300000e+001, 5.301000e+003
3.320000e+001, 5.245000e+003
3.340000e+001, 5.201000e+003
3.360000e+001, 5.151000e+003
3.380000e+001, 5.129000e+003
3.400000e+001, 5.079000e+003
3.420000e+001, 5.057000e+003
3.440000e+001, 5.025000e+003
3.460000e+001, 4.996000e+003
3.480000e+001, 4.976000e+003
3.500000e+001, 4.946000e+003
3.520000e+001, 4.916000e+003
3.540000e+001, 4.894000e+003
3.560000e+001, 4.872000e+003
3.580000e+001, 4.859000e+003
3.600000e+001, 4.851000e+003
3.620000e+001, 4.830000e+003
3.640000e+001, 4.811000e+003
3.660000e+001, 4.795000e+003
3.680000e+001, 4.790000e+003
3.700000e+001, 4.773000e+003
3.720000e+001, 4.755000e+003
3.740000e+001, 4.748000e+003
3.760000e+001, 4.723000e+003
3.780000e+001, 4.714000e+003
3.800000e+001, 4.693000e+003
3.820000e+001, 4.674000e+003
3.840000e+001, 4.664000e+003
3.860000e+001, 4.657000e+003
3.880000e+001, 4.660000e+003
3.900000e+001, 4.640000e+003
3.920000e+001, 4.639000e+003
3.940000e+001, 4.643000e+003
3.960000e+001, 4.642000e+003
3.980000e+001, 4.647000e+003
4.000000e+001, 4.647000e+003
4.020000e+001, 4.653000e+003
4.040000e+001, 4.654000e+003
4.060000e+001, 4.662000e+003
4.080000e+001, 4.669000e+003
4.100000e+001, 4.676000e+003
4.120000e+001, 4.673000e+003
4.140000e+001, 4.676000e+003
4.160000e+001, 4.673000e+003
4.180000e+001, 4.668000e+003
4.200000e+001, 4.666000e+003
4.220000e+001, 4.653000e+003
4.240000e+001, 4.646000e+003
4.260000e+001, 4.637000e+003
4.280000e+001, 4.625000e+003
4.300000e+001, 4.608000e+003
4.320000e+001, 4.593000e+003
4.340000e+001, 4.579000e+003
4.360000e+001, 4.545000e+003
4.380000e+001, 4.526000e+003
4.400000e+001, 4.488000e+003
4.420000e+001, 4.457000e+003
4.440000e+001, 4.421000e+003
4.460000e+001, 4.385000e+003
4.480000e+001, 4.350000e+003
4.500000e+001, 4.307000e+003
4.520000e+001, 4.262000e+003
4.540000e+001, 4.227000e+003
4.560000e+001, 4.186000e+003
4.580000e+001, 4.144000e+003
4.600000e+001, 4.096000e+003
4.620000e+001, 4.066000e+003
4.640000e+001, 4.029000e+003
4.660000e+001, 3.990000e+003
4.680000e+001, 3.958000e+003
4.700000e+001, 3.922000e+003
4.720000e+001, 3.895000e+003
4.740000e+001, 3.866000e+003
4.760000e+001, 3.842000e+003
4.780000e+001, 3.822000e+003
4.800000e+001, 3.795000e+003
4.820000e+001, 3.776000e+003
4.840000e+001, 3.761000e+003
4.860000e+001, 3.730000e+003
4.880000e+001, 3.711000e+003
4.900000e+001, 3.694000e+003
4.920000e+001, 3.667000e+003
4.940000e+001, 3.644000e+003
4.960000e+001, 3.623000e+003
4.980000e+001, 3.597000e+003
5.000000e+001, 3.565000e+003
5.020000e+001, 3.533000e+003
5.040000e+001, 3.504000e+003
5.060000e+001, 3.471000e+003
5.080000e+001, 3.440000e+003
5.100000e+001, 3.411000e+003
5.120000e+001, 3.367000e+003
5.140000e+001, 3.327000e+003
5.160000e+001, 3.286000e+003
5.180000e+001, 3.254000e+003
5.200000e+001, 3.202000e+003
5.220000e+001, 3.170000e+003
5.240000e+001, 3.135000e+003
5.260000e+001, 3.103000e+003
5.280000e+001, 3.075000e+003
5.300000e+001, 3.036000e+003
5.320000e+001, 3.003000e+003
5.340000e+001, 2.976000e+003
5.360000e+001, 2.959000e+003
5.380000e+001, 2.931000e+003
5.400000e+001, 2.907000e+003
5.420000e+001, 2.888000e+003
5.440000e+001, 2.868000e+003
5.460000e+001, 2.857000e+003
5.480000e+001, 2.842000e+003
5.500000e+001, 2.835000e+003
5.520000e+001, 2.816000e+003
5.540000e+001, 2.807000e+003
5.560000e+001, 2.799000e+003
5.580000e+001, 2.797000e+003
5.600000e+001, 2.786000e+003
5.620000e+001, 2.780000e+003
5.640000e+001, 2.777000e+003
5.660000e+001, 2.785000e+003
5.680000e+001, 2.784000e+003
5.700000e+001, 2.784000e+003
5.720000e+001, 2.790000e+003
5.740000e+001, 2.797000e+003
5.760000e+001, 2.808000e+003
5.780000e+001, 2.818000e+003
5.800000e+001, 2.822000e+003
5.820000e+001, 2.821000e+003
5.840000e+001, 2.819000e+003
5.860000e+001, 2.809000e+003
5.880000e+001, 2.790000e+003
5.900000e+001, 2.783000e+003
5.920000e+001, 2.772000e+003
5.940000e+001, 2.759000e+003
5.960000e+001, 2.762000e+003
5.980000e+001, 2.769000e+003
6.000000e+001, 2.790000e+003
6.020000e+001, 2.844000e+003
6.040000e+001, 2.896000e+003
6.060000e+001, 2.989000e+003
6.080000e+001, 3.115000e+003
6.100000e+001, 3.271000e+003
6.120000e+001, 3.450000e+003
6.140000e+001, 3.621000e+003
6.160000e+001, 3.736000e+003
6.180000e+001, 3.770000e+003
6.200000e+001, 3.706000e+003
6.220000e+001, 3.596000e+003
6.240000e+001, 3.470000e+003
6.260000e+001, 3.331000e+003
6.280000e+001, 3.227000e+003
6.300000e+001, 3.133000e+003
6.320000e+001, 3.058000e+003
6.340000e+001, 3.001000e+003
6.360000e+001, 2.955000e+003
6.380000e+001, 2.924000e+003
6.400000e+001, 2.905000e+003
6.420000e+001, 2.878000e+003
6.440000e+001, 2.884000e+003
6.460000e+001, 2.877000e+003
6.480000e+001, 2.875000e+003
6.500000e+001, 2.863000e+003
6.520000e+001, 2.847000e+003
6.540000e+001, 2.841000e+003
6.560000e+001, 2.833000e+003
6.580000e+001, 2.820000e+003
6.600000e+001, 2.810000e+003
6.620000e+001, 2.804000e+003
6.640000e+001, 2.791000e+003
6.660000e+001, 2.795000e+003
6.680000e+001, 2.784000e+003
6.700000e+001, 2.781000e+003
6.720000e+001, 2.773000e+003
6.740000e+001, 2.769000e+003
6.760000e+001, 2.762000e+003
6.780000e+001, 2.760000e+003
6.800000e+001, 2.748000e+003
6.820000e+001, 2.749000e+003
6.840000e+001, 2.740000e+003
6.860000e+001, 2.754000e+003
6.880000e+001, 2.761000e+003
6.900000e+001, 2.767000e+003
6.920000e+001, 2.766000e+003
6.940000e+001, 2.763000e+003
6.960000e+001, 2.738000e+003
6.980000e+001, 2.713000e+003
7.000000e+001, 2.667000e+003
7.020000e+001, 2.610000e+003
7.040000e+001, 2.549000e+003
7.060000e+001, 2.492000e+003
7.080000e+001, 2.441000e+003
7.100000e+001, 2.384000e+003
7.120000e+001, 2.339000e+003
7.140000e+001, 2.289000e+003
7.160000e+001, 2.266000e+003
7.180000e+001, 2.227000e+003
7.200000e+001, 2.198000e+003
7.220000e+001, 2.171000e+003
7.240000e+001, 2.144000e+003
7.260000e+001, 2.123000e+003
7.280000e+001, 2.094000e+003
7.300000e+001, 2.084000e+003
7.320000e+001, 2.058000e+003
7.340000e+001, 2.041000e+003
7.360000e+001, 1.863000e+003
7.380000e+001, 2.010000e+003
7.400000e+001, 1.999000e+003
7.420000e+001, 1.989000e+003
7.440000e+001, 1.972000e+003
7.460000e+001, 1.966000e+003
7.480000e+001, 1.953000e+003
7.500000e+001, 1.942000e+003
7.520000e+001, 1.932000e+003
7.540000e+001, 1.927000e+003
7.560000e+001, 1.919000e+003
7.580000e+001, 1.913000e+003
7.600000e+001, 1.903000e+003
7.620000e+001, 1.894000e+003
7.640000e+001, 1.890000e+003
7.660000e+001, 1.884000e+003
7.680000e+001, 1.884000e+003
7.700000e+001, 1.872000e+003
7.720000e+001, 1.873000e+003
7.740000e+001, 1.863000e+003
7.760000e+001, 1.856000e+003
7.780000e+001, 1.852000e+003
7.800000e+001, 1.847000e+003
7.820000e+001, 1.843000e+003
7.840000e+001, 1.822000e+003
7.860000e+001, 1.835000e+003
7.880000e+001, 1.824000e+003
7.900000e+001, 1.821000e+003
7.920000e+001, 1.805000e+003
7.940000e+001, 1.805000e+003
7.960000e+001, 1.802000e+003
7.980000e+001, 1.796000e+003
8.000000e+001, 1.789000e+003
8.020000e+001, 1.781000e+003
8.040000e+001, 1.779000e+003
8.060000e+001, 1.766000e+003
8.080000e+001, 1.761000e+003
8.100000e+001, 1.752000e+003
8.120000e+001, 1.749000e+003
8.140000e+001, 1.742000e+003
8.160000e+001, 1.735000e+003
8.180000e+001, 1.726000e+003
8.200000e+001, 1.723000e+003
8.220000e+001, 1.718000e+003
8.240000e+001, 1.711000e+003
8.260000e+001, 1.700000e+003
8.280000e+001, 1.702000e+003
8.300000e+001, 1.690000e+003
8.320000e+001, 1.687000e+003
8.340000e+001, 1.676000e+003
8.360000e+001, 1.666000e+003
8.380000e+001, 1.671000e+003
8.400000e+001, 1.657000e+003
8.420000e+001, 1.652000e+003
8.440000e+001, 1.648000e+003
8.460000e+001, 1.645000e+003
8.480000e+001, 1.639000e+003
8.500000e+001, 1.633000e+003
8.520000e+001, 1.632000e+003
8.540000e+001, 1.628000e+003
8.560000e+001, 1.625000e+003
8.580000e+001, 1.624000e+003
8.600000e+001, 1.620000e+003
8.620000e+001, 1.611000e+003
8.640000e+001, 1.610000e+003
8.660000e+001, 1.609000e+003
8.680000e+001, 1.600000e+003
8.700000e+001, 1.594000e+003
8.720000e+001, 1.580000e+003
8.740000e+001, 1.579000e+003
8.760000e+001, 1.573000e+003
8.780000e+001, 1.564000e+003
8.800000e+001, 1.558000e+003
8.820000e+001, 1.548000e+003
8.840000e+001, 1.535000e+003
8.860000e+001, 1.530000e+003
8.880000e+001, 1.518000e+003
8.900000e+001, 1.510000e+003
8.920000e+001, 1.497000e+003
8.940000e+001, 1.487000e+003
8.960000e+001, 1.483000e+003
8.980000e+001, 1.469000e+003
9.000000e+001, 1.459000e+003
9.020000e+001, 1.453000e+003
9.040000e+001, 1.438000e+003
9.060000e+001, 1.442000e+003
9.080000e+001, 1.429000e+003
9.100000e+001, 1.420000e+003
9.120000e+001, 1.411000e+003
9.140000e+001, 1.406000e+003
9.160000e+001, 1.396000e+003
9.180000e+001, 1.391000e+003
9.200000e+001, 1.384000e+003
9.220000e+001, 1.378000e+003
9.240000e+001, 1.368000e+003
9.260000e+001, 1.361000e+003
9.280000e+001, 1.361000e+003
9.300000e+001, 1.348000e+003
9.320000e+001, 1.345000e+003
9.340000e+001, 1.341000e+003
9.360000e+001, 1.336000e+003
9.380000e+001, 1.330000e+003
9.400000e+001, 1.329000e+003
9.420000e+001, 1.314000e+003
9.440000e+001, 1.316000e+003
9.460000e+001, 1.310000e+003
9.480000e+001, 1.302000e+003
9.500000e+001, 1.297000e+003
9.520000e+001, 1.285000e+003
9.540000e+001, 1.285000e+003
9.560000e+001, 1.277000e+003
9.580000e+001, 1.275000e+003
9.600000e+001, 1.264000e+003
9.620000e+001, 1.261000e+003
9.640000e+001, 1.248000e+003
9.660000e+001, 1.246000e+003
9.680000e+001, 1.243000e+003
9.700000e+001, 1.232000e+003
9.720000e+001, 1.227000e+003
9.740000e+001, 1.220000e+003
9.760000e+001, 1.215000e+003
9.780000e+001, 1.208000e+003
9.800000e+001, 1.206000e+003
9.820000e+001, 1.192000e+003
9.840000e+001, 1.188000e+003
9.860000e+001, 1.180000e+003
9.880000e+001, 1.179000e+003
9.900000e+001, 1.170000e+003
9.920000e+001, 1.168000e+003
9.940000e+001, 1.161000e+003
9.960000e+001, 1.160000e+003
9.980000e+001, 1.155000e+003
1.000000e+002, 1.147000e+003
1.002000e+002, 1.142000e+003
1.004000e+002, 1.140000e+003
1.006000e+002, 1.133000e+003
1.008000e+002, 1.127000e+003
1.010000e+002, 1.126000e+003
1.012000e+002, 1.115000e+003
1.014000e+002, 1.054000e+003
1.016000e+002, 1.109000e+003
1.018000e+002, 1.106000e+003
1.020000e+002, 1.103000e+003
1.022000e+002, 1.090000e+003
1.024000e+002, 1.089000e+003
1.026000e+002, 1.084000e+003
1.028000e+002, 1.079000e+003
1.030000e+002, 1.076000e+003
1.032000e+002, 1.066000e+003
1.034000e+002, 1.066000e+003
1.036000e+002, 1.061000e+003
1.038000e+002, 1.058000e+003
1.040000e+002, 1.049000e+003
1.042000e+002, 1.043000e+003
1.044000e+002, 1.039000e+003
1.046000e+002, 1.034000e+003
1.048000e+002, 1.032000e+003
1.050000e+002, 1.025000e+003
1.052000e+002, 1.018000e+003
1.054000e+002, 1.018000e+003
1.056000e+002, 1.011000e+003
1.058000e+002, 1.009000e+003
1.060000e+002, 9.990000e+002
1.062000e+002, 9.920000e+002
1.064000e+002, 9.870000e+002
1.066000e+002, 9.840000e+002
1.068000e+002, 9.830000e+002
1.070000e+002, 9.790000e+002
1.072000e+002, 9.680000e+002
1.074000e+002, 9.600000e+002
1.076000e+002, 9.610000e+002
1.078000e+002, 9.580000e+002
1.080000e+002, 9.470000e+002
1.082000e+002, 9.420000e+002
1.084000e+002, 9.400000e+002
1.086000e+002, 9.410010e+002
1.088000e+002, 9.340000e+002
1.090000e+002, 9.250000e+002
1.092000e+002, 9.150000e+002
1.094000e+002, 9.170000e+002
1.096000e+002, 9.160000e+002
1.098000e+002, 9.080000e+002
1.100000e+002, 9.080000e+002
1.102000e+002, 8.980000e+002
1.104000e+002, 8.920000e+002
1.106000e+002, 8.970000e+002
1.108000e+002, 8.920000e+002
1.110000e+002, 8.820000e+002
1.112000e+002, 8.820000e+002
1.114000e+002, 8.760000e+002
1.116000e+002, 8.730000e+002
1.118000e+002, 8.690000e+002
1.120000e+002, 8.680000e+002
1.122000e+002, 8.610000e+002
1.124000e+002, 8.580000e+002
1.126000e+002, 8.590000e+002
1.128000e+002, 8.510000e+002
1.130000e+002, 8.500000e+002
1.132000e+002, 8.430000e+002
1.134000e+002, 8.390000e+002
1.136000e+002, 8.390000e+002
1.138000e+002, 8.350000e+002
1.140000e+002, 8.300000e+002
1.142000e+002, 8.230000e+002
1.144000e+002, 8.250000e+002
1.146000e+002, 8.210000e+002
1.148000e+002, 8.130000e+002
1.150000e+002, 8.130000e+002
1.152000e+002, 8.090000e+002
1.154000e+002, 8.030000e+002
1.156000e+002, 8.000000e+002
1.158000e+002, 7.970000e+002
1.160000e+002, 7.920000e+002
1.162000e+002, 7.860000e+002
1.164000e+002, 7.810000e+002
1.166000e+002, 7.820000e+002
1.168000e+002, 7.760000e+002
1.170000e+002, 7.700000e+002
1.172000e+002, 7.660000e+002
1.174000e+002, 7.670000e+002
1.176000e+002, 7.610000e+002
1.178000e+002, 7.550000e+002
1.180000e+002, 7.530000e+002
1.182000e+002, 7.470000e+002
1.184000e+002, 7.440000e+002
1.186000e+002, 7.430000e+002
1.188000e+002, 7.390000e+002
1.190000e+002, 7.340000e+002
1.192000e+002, 7.280000e+002
1.194000e+002, 7.270000e+002
1.196000e+002, 7.300000e+002
1.198000e+002, 7.210000e+002
1.200000e+002, 7.210000e+002
1.202000e+002, 7.120000e+002
1.204000e+002, 7.140000e+002
1.206000e+002, 7.130000e+002
1.208000e+002, 7.070000e+002
1.210000e+002, 7.050000e+002
1.212000e+002, 7.010000e+002
1.214000e+002, 6.950000e+002
1.216000e+002, 6.990000e+002
1.218000e+002, 6.910000e+002
1.220000e+002, 6.900000e+002
1.222000e+002, 6.820000e+002
1.224000e+002, 6.850000e+002
1.226000e+002, 6.830000e+002
1.228000e+002, 6.790000e+002
1.230000e+002, 6.780000e+002
1.232000e+002, 6.720000e+002
1.234000e+002, 6.680000e+002
1.236000e+002, 6.730000e+002
1.238000e+002, 6.680000e+002
1.240000e+002, 6.630000e+002
1.242000e+002, 6.630000e+002
1.244000e+002, 6.500000e+002
1.246000e+002, 6.630000e+002
1.248000e+002, 6.540000e+002
1.250000e+002, 6.470000e+002
1.252000e+002, 6.460000e+002
1.254000e+002, 6.420000e+002
1.256000e+002, 6.450000e+002
1.258000e+002, 6.340000e+002
1.260000e+002, 6.310000e+002
1.262000e+002, 6.330000e+002
1.264000e+002, 6.300000e+002
1.266000e+002, 6.270000e+002
1.268000e+002, 6.240000e+002
1.270000e+002, 6.210000e+002
1.272000e+002, 6.170000e+002
1.274000e+002, 6.160000e+002
1.276000e+002, 6.120000e+002
1.278000e+002, 6.110000e+002
1.280000e+002, 6.060000e+002
1.282000e+002, 6.030000e+002
1.284000e+002, 6.050000e+002
1.286000e+002, 6.020000e+002
1.288000e+002, 5.970000e+002
1.290000e+002, 5.950000e+002
1.292000e+002, 5.910000e+002
1.294000e+002, 5.890000e+002
1.296000e+002, 5.920000e+002
1.298000e+002, 5.840000e+002
1.300000e+002, 5.800000e+002
1.302000e+002, 5.790000e+002
1.304000e+002, 5.770000e+002
1.306000e+002, 5.750000e+002
1.308000e+002, 5.730000e+002
1.310000e+002, 5.700000e+002
1.312000e+002, 5.670000e+002
1.314000e+002, 5.650000e+002
1.316000e+002, 5.610000e+002
1.318000e+002, 5.610000e+002
1.320000e+002, 5.570000e+002
1.322000e+002, 5.560000e+002
1.324000e+002, 5.520000e+002
1.326000e+002, 5.550000e+002
1.328000e+002, 5.490000e+002
1.330000e+002, 5.450000e+002
1.332000e+002, 5.390000e+002
1.334000e+002, 5.400000e+002
1.336000e+002, 5.410000e+002
1.338000e+002, 5.330000e+002
1.340000e+002, 5.350000e+002
1.342000e+002, 5.260000e+002
1.344000e+002, 5.320000e+002
1.346000e+002, 5.270000e+002
1.348000e+002, 5.250000e+002
1.350000e+002, 5.230000e+002
1.352000e+002, 5.190000e+002
1.354000e+002, 5.190000e+002
1.356000e+002, 5.160000e+002
1.358000e+002, 5.150000e+002
1.360000e+002, 5.140000e+002
1.362000e+002, 5.060000e+002
1.364000e+002, 5.070000e+002
1.366000e+002, 5.100000e+002
1.368000e+002, 5.040000e+002
1.370000e+002, 5.040000e+002
1.372000e+002, 5.010000e+002
1.374000e+002, 4.950000e+002
1.376000e+002, 5.000000e+002
1.378000e+002, 4.950000e+002
1.380000e+002, 4.950000e+002
1.382000e+002, 4.900000e+002
1.384000e+002, 4.870000e+002
1.386000e+002, 4.840000e+002
1.388000e+002, 4.850000e+002
1.390000e+002, 4.820000e+002
1.392000e+002, 4.770000e+002
1.394000e+002, 4.820000e+002
1.396000e+002, 4.800000e+002
1.398000e+002, 4.730000e+002
1.400000e+002, 4.700000e+002
1.402000e+002, 4.710000e+002
1.404000e+002, 4.690000e+002
1.406000e+002, 4.660000e+002
1.408000e+002, 4.660000e+002
1.410000e+002, 4.600000e+002
1.412000e+002, 4.630000e+002
1.414000e+002, 4.540000e+002
1.416000e+002, 4.600000e+002
1.418000e+002, 4.510000e+002
1.420000e+002, 4.480000e+002
1.422000e+002, 4.470000e+002
1.424000e+002, 4.490000e+002
1.426000e+002, 4.530000e+002
1.428000e+002, 4.430000e+002
1.430000e+002, 4.420000e+002
1.432000e+002, 4.400000e+002
1.434000e+002, 4.400000e+002
1.436000e+002, 4.380000e+002
1.438000e+002, 4.350000e+002
1.440000e+002, 4.350000e+002
1.442000e+002, 4.300000e+002
1.444000e+002, 4.300000e+002
1.446000e+002, 4.290000e+002
1.448000e+002, 4.250000e+002
1.450000e+002, 4.260000e+002
1.452000e+002, 4.210000e+002
1.454000e+002, 4.240000e+002
1.456000e+002, 4.210000e+002
1.458000e+002, 4.190000e+002
1.460000e+002, 4.170000e+002
1.462000e+002, 4.160000e+002
1.464000e+002, 4.110000e+002
1.466000e+002, 4.160000e+002
1.468000e+002, 4.110000e+002
1.470000e+002, 4.060000e+002
1.472000e+002, 4.080000e+002
1.474000e+002, 4.030000e+002
1.476000e+002, 4.090000e+002
1.478000e+002, 4.030000e+002
1.480000e+002, 4.030000e+002
1.482000e+002, 4.000000e+002
1.484000e+002, 3.980000e+002
1.486000e+002, 3.980000e+002
1.488000e+002, 4.000000e+002
1.490000e+002, 3.930000e+002
1.492000e+002, 3.920000e+002
1.494000e+002, 3.900000e+002
1.496000e+002, 3.940000e+002
1.498000e+002, 3.890000e+002
1.500000e+002, 3.850000e+002
1.502000e+002, 3.860000e+002
1.504000e+002, 3.830000e+002
1.506000e+002, 3.850000e+002
1.508000e+002, 3.820000e+002
1.510000e+002, 3.780000e+002
1.512000e+002, 3.740000e+002
1.514000e+002, 3.780000e+002
1.516000e+002, 3.760000e+002
1.518000e+002, 3.720000e+002
1.520000e+002, 3.740000e+002
1.522000e+002, 3.690000e+002
1.524000e+002, 3.690000e+002
1.526000e+002, 3.690000e+002
1.528000e+002, 3.650000e+002
1.530000e+002, 3.680000e+002
1.532000e+002, 3.630000e+002
1.534000e+002, 3.640000e+002
1.536000e+002, 3.580000e+002
1.538000e+002, 3.590000e+002
1.540000e+002, 3.550000e+002
1.542000e+002, 3.610000e+002
1.544000e+002, 3.540000e+002
1.546000e+002, 3.590000e+002
1.548000e+002, 3.560000e+002
1.550000e+002, 3.490000e+002
1.552000e+002, 3.500000e+002
1.554000e+002, 3.440000e+002
1.556000e+002, 3.550000e+002
1.558000e+002, 3.460000e+002
1.560000e+002, 3.440000e+002
1.562000e+002, 3.440000e+002
1.564000e+002, 3.450000e+002
1.566000e+002, 3.450000e+002
1.568000e+002, 3.400000e+002
1.570000e+002, 3.360000e+002
1.572000e+002, 3.410000e+002
1.574000e+002, 3.380000e+002
1.576000e+002, 3.340000e+002
1.578000e+002, 3.380000e+002
1.580000e+002, 3.300000e+002
1.582000e+002, 3.320000e+002
1.584000e+002, 3.270000e+002
1.586000e+002, 3.330000e+002
1.588000e+002, 3.330000e+002
1.590000e+002, 3.230000e+002
1.592000e+002, 3.250000e+002
1.594000e+002, 3.240000e+002
1.596000e+002, 3.240000e+002
1.598000e+002, 3.230000e+002
1.600000e+002, 3.220000e+002
1.602000e+002, 3.200000e+002
1.604000e+002, 3.170000e+002
1.606000e+002, 3.190000e+002
1.608000e+002, 3.220000e+002
1.610000e+002, 3.110000e+002
1.612000e+002, 3.140000e+002
1.614000e+002, 3.170000e+002
1.616000e+002, 3.110000e+002
1.618000e+002, 3.150000e+002
1.620000e+002, 3.070000e+002
1.622000e+002, 3.100000e+002
1.624000e+002, 3.050000e+002
1.626000e+002, 3.080000e+002
1.628000e+002, 3.090000e+002
1.630000e+002, 3.020000e+002
1.632000e+002, 3.010000e+002
1.634000e+002, 3.030000e+002
1.636000e+002, 3.080000e+002
1.638000e+002, 2.990000e+002
1.640000e+002, 2.960000e+002
1.642000e+002, 2.990000e+002
1.644000e+002, 2.960000e+002
1.646000e+002, 3.000000e+002
1.648000e+002, 2.960000e+002
1.650000e+002, 2.920000e+002
1.652000e+002, 2.880000e+002
1.654000e+002, 2.920000e+002
1.656000e+002, 2.930000e+002
1.658000e+002, 2.900000e+002
1.660000e+002, 2.890000e+002
1.662000e+002, 2.860000e+002
1.664000e+002, 2.860000e+002
1.666000e+002, 2.850000e+002
1.668000e+002, 2.840000e+002
1.670000e+002, 2.820000e+002
1.672000e+002, 2.820000e+002
1.674000e+002, 2.800000e+002
1.676000e+002, 2.810000e+002
1.678000e+002, 2.830000e+002
1.680000e+002, 2.780000e+002
1.682000e+002, 2.770000e+002
1.684000e+002, 2.760000e+002
1.686000e+002, 2.770000e+002
1.688000e+002, 2.770000e+002
1.690000e+002, 2.700000e+002
1.692000e+002, 2.700000e+002
1.694000e+002, 2.770000e+002
1.696000e+002, 2.690000e+002
1.698000e+002, 2.720000e+002
1.700000e+002, 2.680000e+002
1.702000e+002, 2.680000e+002
1.704000e+002, 2.660000e+002
1.706000e+002, 2.700000e+002
1.708000e+002, 2.660000e+002
1.710000e+002, 2.650000e+002
1.712000e+002, 2.640000e+002
1.714000e+002, 2.610000e+002
1.716000e+002, 2.620000e+002
1.718000e+002, 2.610000e+002
1.720000e+002, 2.620000e+002
1.722000e+002, 2.580000e+002
1.724000e+002, 2.600000e+002
1.726000e+002, 2.580000e+002
1.728000e+002, 2.590000e+002
1.730000e+002, 2.408240e+000
1.732000e+002, 2.399670e+000
1.734000e+002, 2.406540e+000
1.736000e+002, 2.403120e+000
1.738000e+002, 2.401400e+000
1.740000e+002, 2.404830e+000
#ENDOFDATA   : End Of Data and File
